LabVIEW Measurement	
Writer_Version	2
Reader_Version	2
Separator	Tab
Decimal_Separator	.
Multi_Headings	No
X_Columns	Multi
Time_Pref	Absolute
Operator	pc
Date	2009/03/13
Time	17:51:03.9375
***End_of_Header***	
	
Channels	4							
Samples	1		1		1		1	
Date	2009/03/13		2009/03/13		2009/03/13		2009/03/13	
Time	17:51:04.390625		17:51:04.390625		17:51:04.390625		17:51:04.390625	
X_Dimension	Time		Time		Time		Time	
X0	0.0000000000000000E+0		0.0000000000000000E+0		0.0000000000000000E+0		0.0000000000000000E+0	
Delta_X	1.000000		1.000000		1.000000		1.000000	
***End_of_Header***								
X_Value	Temp1	X_Value	Temp2	X_Value	Voltage	X_Value	Current	Comment
0.000000	20.046753	0.000000	19.771429	0.000000	7.650000	0.000000	-0.048000
0.546875	20.018182	0.359375	19.716883	0.390625	7.645000	0.453125	-0.032000
0.937500	19.815584	0.750000	19.703896	0.781250	7.650000	0.843750	-0.022000
1.437500	19.992208	1.265625	19.745455	1.296875	7.650000	1.359375	-0.048000
1.937500	19.966234	1.750000	19.732468	1.781250	7.650000	1.859375	-0.059000
2.437500	19.937662	2.250000	19.690909	2.281250	7.650000	2.343750	-0.005000
2.937500	19.911688	2.750000	19.732468	2.781250	7.650000	2.843750	-0.011000
3.437500	19.992208	3.250000	19.690909	3.281250	7.645000	3.343750	-0.011000
3.937500	19.870130	3.750000	19.651948	3.781250	7.650000	3.859375	-0.027000
4.437500	20.018182	4.250000	19.690909	4.281250	7.650000	4.343750	-0.011000
4.937500	19.924675	4.750000	19.664935	4.781250	7.650000	4.843750	-0.016000
5.437500	19.992208	5.250000	19.690909	5.281250	7.645000	5.343750	-0.005000
5.937500	19.937662	5.750000	19.877922	5.781250	7.650000	5.843750	-0.016000
6.437500	19.937662	6.250000	19.797403	6.281250	7.650000	6.359375	-0.016000
6.937500	19.979221	6.750000	19.651948	6.781250	7.650000	6.843750	-0.027000
7.437500	19.937662	7.250000	19.651948	7.281250	7.650000	7.343750	-0.005000
7.937500	19.966234	7.750000	19.690909	7.781250	7.650000	7.859375	-0.016000
8.531250	20.018182	8.250000	19.797403	8.281250	7.650000	8.265625	-0.005000
8.937500	19.992208	8.750000	19.584416	8.781250	7.650000	8.843750	-0.005000
9.437500	19.831169	9.250000	19.664935	9.281250	7.650000	9.343750	-0.027000
9.937500	19.992208	9.750000	19.703896	9.781250	7.650000	9.843750	-0.016000
10.437500	19.831169	10.406250	19.610390	10.406250	8.233000	10.421875	15.006000
10.937500	19.979221	10.750000	19.677922	10.781250	8.547000	10.859375	15.006000
11.437500	19.979221	11.250000	19.664935	11.296875	8.928000	11.359375	14.995000
11.937500	19.992208	11.750000	19.703896	11.796875	9.289000	11.859375	14.995000
12.437500	19.883117	12.250000	19.745455	12.281250	9.649000	12.343750	15.033000
13.031250	20.101299	12.750000	19.810390	12.781250	10.000000	12.765625	15.028000
13.437500	19.883117	13.250000	19.797403	13.281250	10.355000	13.359375	15.028000
13.937500	19.763636	13.750000	19.690909	13.781250	10.700000	13.843750	15.028000
14.437500	19.937662	14.250000	19.703896	14.281250	11.040000	14.343750	15.028000
14.937500	19.776623	14.750000	19.651948	14.781250	11.391000	14.843750	15.006000
15.437500	19.911688	15.250000	19.597403	15.281250	11.725000	15.343750	15.038000
15.937500	19.911688	15.750000	19.784416	15.781250	12.071000	15.859375	15.022000
16.437500	20.072727	16.250000	19.745455	16.281250	12.406000	16.359375	15.028000
16.937500	19.898701	16.750000	19.703896	16.781250	12.730000	16.859375	15.011000
17.437500	19.937662	17.250000	19.545455	17.281250	13.055000	17.343750	15.038000
17.937500	19.966234	17.750000	19.677922	17.781250	13.390000	17.859375	15.006000
18.437500	19.857143	18.250000	19.664935	18.281250	13.714000	18.343750	15.033000
18.937500	19.924675	18.750000	19.638961	18.781250	14.033000	18.843750	15.038000
19.437500	19.966234	19.250000	19.703896	19.281250	14.358000	19.359375	15.006000
19.937500	19.883117	19.750000	19.651948	19.781250	14.672000	19.843750	15.028000
20.468750	20.114286	20.281250	19.677922	20.312500	14.379000	20.375000	0.016000
20.937500	19.831169	20.750000	19.677922	20.781250	14.358000	20.859375	-0.022000
21.437500	19.815584	21.250000	19.545455	21.281250	14.343000	21.343750	-0.027000
21.937500	19.883117	21.750000	19.690909	21.781250	14.332000	21.859375	-0.027000
22.437500	19.883117	22.250000	19.758442	22.281250	14.322000	22.343750	-0.011000
22.937500	19.883117	22.750000	19.703896	22.781250	14.312000	22.859375	-0.016000
23.437500	19.857143	23.250000	19.825974	23.281250	14.301000	23.343750	-0.005000
23.937500	19.883117	23.750000	19.677922	23.781250	14.296000	23.843750	0.000000
24.437500	19.911688	24.250000	19.690909	24.281250	14.286000	24.343750	-0.016000
24.937500	19.911688	24.765625	19.838961	24.796875	14.281000	24.859375	-0.038000
25.437500	19.924675	25.250000	19.529870	25.281250	14.270000	25.343750	0.005000
25.937500	19.883117	25.750000	19.703896	25.781250	14.265000	25.859375	-0.027000
26.437500	19.844156	26.250000	19.558442	26.281250	14.255000	26.343750	0.005000
26.937500	20.207792	26.750000	19.703896	26.781250	14.255000	26.859375	-0.016000
27.437500	20.236364	27.250000	19.490909	27.281250	14.250000	27.343750	-0.005000
27.937500	19.992208	27.750000	19.638961	27.781250	14.245000	27.843750	-0.005000
28.437500	19.924675	28.250000	19.623377	28.281250	14.245000	28.343750	-0.016000
28.937500	20.262338	28.750000	19.825974	28.781250	14.234000	28.843750	-0.005000
29.437500	19.937662	29.250000	19.651948	29.281250	14.229000	29.359375	-0.005000
29.937500	19.992208	29.750000	19.716883	29.796875	14.229000	29.859375	-0.016000
30.437500	19.870130	30.250000	19.690909	30.281250	14.229000	30.359375	-0.016000
30.937500	20.127273	30.750000	19.758442	30.796875	14.229000	30.859375	-0.016000
31.437500	19.883117	31.250000	19.732468	31.296875	14.224000	31.359375	-0.016000
31.937500	19.966234	31.750000	19.529870	31.781250	14.224000	31.843750	-0.005000
32.437500	20.046753	32.250000	19.651948	32.281250	14.219000	32.343750	-0.022000
32.937500	20.018182	32.750000	19.716883	32.781250	14.219000	32.843750	-0.032000
33.437500	19.966234	33.250000	19.638961	33.281250	14.219000	33.343750	-0.016000
33.937500	19.924675	33.750000	19.703896	33.781250	14.209000	33.843750	0.016000
34.437500	19.992208	34.250000	19.690909	34.281250	14.214000	34.359375	-0.016000
34.937500	19.924675	34.750000	19.810390	34.781250	14.209000	34.843750	-0.005000
35.437500	19.831169	35.250000	19.690909	35.281250	14.209000	35.359375	-0.016000
35.937500	19.870130	35.750000	19.677922	35.781250	14.203000	35.843750	-0.027000
36.437500	19.911688	36.265625	19.810390	36.296875	14.209000	36.359375	-0.011000
36.937500	19.911688	36.750000	19.664935	36.781250	14.203000	36.859375	-0.005000
37.437500	19.937662	37.250000	19.825974	37.281250	14.203000	37.343750	-0.038000
37.937500	19.870130	37.750000	19.651948	37.796875	14.203000	37.859375	-0.016000
38.437500	20.018182	38.250000	19.745455	38.281250	14.203000	38.359375	-0.016000
38.937500	19.937662	38.750000	19.732468	38.781250	14.203000	38.843750	-0.038000
39.437500	19.992208	39.250000	19.703896	39.281250	14.198000	39.343750	-0.016000
39.937500	19.911688	39.750000	19.677922	39.796875	14.198000	39.859375	-0.038000
40.437500	19.950649	40.250000	19.664935	40.296875	14.193000	40.359375	-0.027000
40.937500	19.937662	40.750000	19.571429	40.781250	14.193000	40.859375	-0.038000
41.437500	20.033766	41.250000	19.745455	41.281250	14.198000	41.343750	0.005000
41.937500	19.966234	41.750000	19.716883	41.781250	14.188000	41.859375	-0.027000
42.437500	19.992208	42.250000	19.703896	42.281250	14.193000	42.343750	0.027000
42.937500	19.966234	42.750000	19.690909	42.781250	14.193000	42.843750	0.027000
43.437500	20.005195	43.250000	19.690909	43.281250	14.188000	43.343750	0.011000
43.937500	19.924675	43.750000	19.797403	43.781250	14.188000	43.859375	0.005000
44.437500	20.005195	44.250000	19.597403	44.281250	14.188000	44.343750	0.027000
44.937500	19.966234	44.750000	19.703896	44.781250	14.188000	44.843750	0.027000
45.437500	20.018182	45.250000	19.610390	45.281250	14.183000	45.343750	0.038000
45.937500	19.937662	45.750000	19.797403	45.781250	14.188000	45.843750	0.027000
46.437500	19.950649	46.250000	19.703896	46.281250	14.183000	46.343750	0.016000
46.937500	20.018182	46.750000	19.664935	46.796875	14.178000	46.859375	0.032000
47.437500	19.911688	47.250000	19.638961	47.281250	14.183000	47.343750	0.022000
47.937500	20.046753	47.750000	19.758442	47.781250	14.178000	47.859375	0.043000
48.437500	20.046753	48.250000	19.677922	48.281250	14.183000	48.343750	0.032000
48.937500	20.140260	48.750000	19.745455	48.781250	14.173000	48.843750	0.016000
49.437500	20.033766	49.250000	19.797403	49.281250	14.173000	49.343750	0.027000
49.937500	19.966234	49.750000	19.703896	49.781250	14.178000	49.859375	0.027000
50.437500	19.911688	50.296875	19.623377	50.312500	13.781000	50.375000	-0.048000
50.937500	19.979221	50.750000	19.716883	50.781250	13.379000	50.859375	-14.893000
51.437500	19.937662	51.250000	19.677922	51.281250	13.044000	51.343750	-14.925000
51.937500	20.046753	51.750000	19.838961	51.781250	12.720000	51.843750	-14.925000
52.437500	20.101299	52.250000	19.703896	52.296875	12.375000	52.359375	-14.893000
52.937500	20.101299	52.750000	19.703896	52.781250	12.045000	52.843750	-14.914000
53.437500	19.966234	53.265625	19.745455	53.296875	11.705000	53.359375	-14.893000
53.937500	20.127273	53.750000	19.784416	53.781250	11.375000	53.843750	-14.925000
54.437500	19.979221	54.265625	19.545455	54.296875	11.025000	54.359375	-14.861000
54.937500	20.181818	54.750000	19.651948	54.781250	10.690000	54.843750	-14.936000
55.437500	20.127273	55.250000	19.677922	55.281250	10.350000	55.343750	-14.904000
55.937500	20.181818	55.750000	19.638961	55.781250	10.010000	55.859375	-14.936000
56.437500	19.763636	56.250000	19.664935	56.281250	9.665000	56.359375	-14.904000
56.937500	20.101299	56.750000	19.623377	56.796875	9.314000	56.859375	-14.898000
57.437500	20.127273	57.250000	19.664935	57.281250	8.959000	57.359375	-14.904000
57.937500	20.101299	57.750000	19.664935	57.781250	8.609000	57.843750	-14.914000
58.437500	20.127273	58.250000	19.810390	58.296875	8.248000	58.359375	-14.882000
58.937500	19.802597	58.750000	19.571429	58.781250	7.903000	58.843750	-14.925000
59.437500	20.127273	59.250000	19.690909	59.281250	7.537000	59.343750	-14.941000
59.953125	19.992208	59.796875	19.664935	59.828125	7.779000	59.875000	-0.005000
60.437500	19.937662	60.250000	19.745455	60.296875	7.795000	60.359375	0.027000
60.937500	20.018182	60.750000	19.758442	60.781250	7.805000	60.843750	0.005000
61.437500	19.950649	61.250000	19.732468	61.281250	7.805000	61.343750	0.011000
61.937500	19.776623	61.750000	19.745455	61.781250	7.815000	61.859375	0.016000
62.437500	19.696104	62.250000	19.651948	62.281250	7.810000	62.343750	0.022000
62.937500	19.802597	62.750000	19.664935	62.781250	7.820000	62.859375	0.022000
63.437500	19.763636	63.250000	19.677922	63.281250	7.820000	63.359375	0.016000
63.937500	19.911688	63.750000	19.677922	63.781250	7.820000	63.843750	0.011000
64.437500	19.966234	64.250000	19.597403	64.281250	7.826000	64.343750	-0.005000
64.937500	19.992208	64.750000	19.623377	64.781250	7.826000	64.843750	0.005000
65.437500	19.924675	65.250000	19.758442	65.281250	7.826000	65.359375	0.005000
65.937500	19.857143	65.750000	19.797403	65.796875	7.831000	65.859375	0.016000
66.437500	20.059740	66.250000	19.758442	66.281250	7.820000	66.343750	0.022000
66.937500	20.072727	66.750000	19.664935	66.781250	7.831000	66.843750	0.011000
67.437500	20.005195	67.250000	19.716883	67.281250	7.826000	67.343750	0.005000
67.937500	20.033766	67.750000	19.610390	67.781250	7.836000	67.843750	-0.005000
68.437500	19.979221	68.250000	19.690909	68.281250	7.836000	68.343750	-0.016000
68.937500	20.018182	68.750000	19.716883	68.781250	7.831000	68.843750	0.027000
69.437500	20.046753	69.250000	19.516883	69.281250	7.831000	69.343750	0.016000
69.937500	20.101299	69.750000	19.545455	69.781250	7.836000	69.843750	0.027000
70.437500	20.072727	70.250000	19.677922	70.281250	7.836000	70.359375	0.016000
70.937500	20.046753	70.750000	19.651948	70.781250	7.836000	70.843750	-0.022000
71.437500	20.046753	71.250000	19.716883	71.281250	7.841000	71.343750	-0.016000
71.937500	19.979221	71.750000	19.716883	71.781250	7.836000	71.843750	-0.005000
72.437500	20.072727	72.250000	19.758442	72.281250	7.841000	72.343750	0.016000
72.937500	20.046753	72.750000	19.810390	72.781250	7.841000	72.859375	0.022000
73.437500	20.059740	73.250000	19.597403	73.281250	7.841000	73.343750	-0.005000
73.937500	20.101299	73.750000	19.745455	73.781250	7.841000	73.843750	-0.032000
74.437500	20.018182	74.250000	19.703896	74.281250	7.836000	74.343750	-0.038000
74.937500	20.046753	74.750000	19.610390	74.781250	7.836000	74.859375	0.016000
75.437500	19.992208	75.250000	19.732468	75.281250	7.841000	75.343750	0.005000
75.937500	20.059740	75.750000	19.810390	75.781250	7.836000	75.859375	-0.032000
76.437500	19.950649	76.250000	19.825974	76.281250	7.841000	76.343750	-0.043000
76.937500	20.153247	76.750000	19.690909	76.796875	7.841000	76.859375	0.011000
77.437500	20.101299	77.250000	19.810390	77.281250	7.841000	77.343750	-0.059000
77.937500	20.005195	77.750000	19.677922	77.781250	7.841000	77.843750	-0.011000
78.437500	19.979221	78.250000	19.716883	78.281250	7.836000	78.343750	-0.027000
78.937500	19.992208	78.750000	19.745455	78.781250	7.841000	78.843750	0.005000
79.437500	19.992208	79.250000	19.784416	79.281250	7.846000	79.343750	-0.048000
79.937500	20.127273	79.671875	19.651948	79.703125	7.841000	80.031250	-0.032000
80.437500	20.018182	80.250000	19.638961	80.281250	7.841000	80.343750	-0.048000
80.937500	20.101299	80.750000	19.771429	80.781250	7.841000	80.843750	-0.022000
81.437500	19.966234	81.250000	19.758442	81.281250	7.841000	81.343750	-0.038000
81.937500	19.992208	81.750000	19.503896	81.781250	7.841000	81.859375	-0.038000
82.437500	20.059740	82.250000	19.758442	82.296875	7.846000	82.359375	-0.016000
82.937500	20.059740	82.750000	19.797403	82.796875	7.841000	82.859375	0.005000
83.437500	20.072727	83.250000	19.703896	83.281250	7.841000	83.359375	-0.016000
83.937500	20.033766	83.750000	19.664935	83.781250	7.841000	83.859375	-0.016000
84.437500	20.046753	84.250000	19.703896	84.281250	7.846000	84.343750	-0.032000
84.937500	20.072727	84.750000	19.571429	84.781250	7.846000	84.859375	-0.038000
85.437500	20.072727	85.250000	19.584416	85.281250	7.841000	85.359375	-0.048000
85.937500	19.992208	85.750000	19.638961	85.781250	7.841000	85.843750	-0.027000
86.437500	20.046753	86.250000	19.677922	86.281250	7.841000	86.343750	-0.027000
86.937500	20.046753	86.750000	19.825974	86.781250	7.841000	86.843750	-0.022000
87.437500	19.979221	87.250000	19.571429	87.296875	7.841000	87.359375	-0.016000
87.937500	19.979221	87.750000	19.664935	87.781250	7.841000	87.843750	-0.022000
88.437500	19.857143	88.171875	19.623377	88.203125	7.846000	88.546875	0.022000
88.937500	20.046753	88.750000	19.651948	88.796875	7.841000	88.859375	-0.043000
89.437500	19.883117	89.250000	19.584416	89.281250	7.841000	89.343750	-0.027000
89.937500	19.883117	89.750000	19.664935	89.781250	7.841000	89.843750	-0.022000
90.453125	20.072727	90.312500	19.677922	90.343750	8.588000	90.406250	15.055000
90.937500	19.937662	90.750000	19.545455	90.781250	8.918000	90.843750	15.038000
91.437500	19.870130	91.250000	19.677922	91.281250	9.289000	91.343750	15.028000
91.937500	19.883117	91.750000	19.703896	91.781250	9.649000	91.859375	15.006000
92.437500	19.937662	92.250000	19.584416	92.281250	10.005000	92.343750	15.028000
92.937500	19.966234	92.750000	19.464935	92.796875	10.371000	92.859375	15.006000
93.437500	19.883117	93.250000	19.638961	93.281250	10.705000	93.359375	14.995000
93.937500	19.966234	93.750000	19.638961	93.781250	11.056000	93.843750	15.028000
94.437500	19.883117	94.250000	19.732468	94.296875	11.401000	94.359375	15.006000
95.031250	20.018182	94.750000	19.732468	94.796875	11.741000	94.765625	15.060000
95.437500	19.937662	95.250000	19.810390	95.296875	12.081000	95.359375	15.017000
95.937500	20.018182	95.750000	19.758442	95.781250	12.411000	95.859375	15.017000
96.437500	19.992208	96.250000	19.716883	96.281250	12.746000	96.359375	15.028000
96.937500	19.898701	96.750000	19.771429	96.781250	13.075000	96.859375	15.017000
97.437500	20.303896	97.250000	19.584416	97.281250	13.405000	97.343750	15.017000
97.937500	20.207792	97.750000	19.529870	97.781250	13.730000	97.859375	15.038000
98.437500	20.303896	98.250000	19.610390	98.281250	14.049000	98.343750	15.028000
98.937500	20.114286	98.750000	19.677922	98.781250	14.373000	98.843750	15.022000
99.437500	20.046753	99.250000	19.758442	99.281250	14.698000	99.359375	15.017000
99.984375	20.236364	99.796875	19.690909	99.828125	14.384000	99.890625	-0.027000
100.437500	20.288312	100.250000	19.571429	100.281250	14.358000	100.343750	-0.011000
100.937500	19.992208	100.750000	19.690909	100.781250	14.353000	100.859375	-0.005000
101.437500	19.911688	101.250000	19.584416	101.281250	14.337000	101.359375	-0.038000
101.937500	20.101299	101.750000	19.664935	101.781250	14.327000	101.843750	-0.005000
102.437500	19.937662	102.250000	19.703896	102.296875	14.322000	102.359375	-0.027000
102.937500	20.059740	102.750000	19.529870	102.781250	14.312000	102.843750	-0.005000
103.437500	19.937662	103.250000	19.610390	103.296875	14.301000	103.359375	-0.027000
103.937500	20.127273	103.750000	19.597403	103.796875	14.291000	103.859375	-0.016000
104.437500	20.046753	104.250000	19.651948	104.296875	14.291000	104.359375	-0.016000
104.937500	19.937662	104.750000	19.677922	104.781250	14.286000	104.843750	-0.027000
105.437500	19.937662	105.250000	19.784416	105.281250	14.276000	105.359375	-0.016000
105.937500	19.966234	105.750000	19.703896	105.781250	14.276000	105.859375	-0.005000
106.437500	20.101299	106.250000	19.558442	106.281250	14.265000	106.343750	-0.027000
106.937500	20.046753	106.750000	19.651948	106.796875	14.270000	106.859375	-0.027000
107.437500	20.072727	107.250000	19.623377	107.281250	14.265000	107.359375	-0.016000
107.937500	19.966234	107.750000	19.584416	107.781250	14.255000	107.859375	-0.027000
108.437500	19.992208	108.250000	19.677922	108.281250	14.260000	108.359375	-0.016000
108.937500	19.992208	108.750000	19.529870	108.781250	14.255000	108.843750	0.000000
109.437500	20.046753	109.250000	19.477922	109.281250	14.255000	109.359375	-0.027000
109.937500	20.114286	109.750000	19.690909	109.796875	14.250000	109.859375	-0.027000
110.437500	20.018182	110.250000	19.529870	110.296875	14.250000	110.359375	-0.016000
110.937500	20.072727	110.750000	19.716883	110.781250	14.250000	110.843750	-0.005000
111.437500	20.101299	111.250000	19.529870	111.281250	14.245000	111.343750	0.022000
111.937500	20.005195	111.750000	19.571429	111.781250	14.240000	111.859375	-0.027000
112.437500	20.114286	112.250000	19.703896	112.281250	14.240000	112.343750	-0.005000
112.937500	20.127273	112.750000	19.623377	112.796875	14.240000	112.859375	-0.038000
113.437500	20.072727	113.250000	19.490909	113.296875	14.240000	113.359375	-0.027000
113.937500	20.005195	113.750000	19.477922	113.796875	14.240000	113.859375	0.000000
114.437500	20.033766	114.250000	19.597403	114.296875	14.234000	114.359375	0.016000
114.937500	20.046753	114.750000	19.584416	114.796875	14.234000	114.859375	-0.005000
115.437500	20.072727	115.250000	19.503896	115.281250	14.234000	115.359375	-0.027000
115.937500	20.101299	115.750000	19.690909	115.781250	14.234000	115.859375	0.016000
116.437500	20.046753	116.250000	19.623377	116.281250	14.234000	116.343750	0.016000
116.937500	20.072727	116.750000	19.558442	116.781250	14.234000	116.859375	0.027000
117.437500	20.101299	117.250000	19.638961	117.281250	14.229000	117.343750	0.005000
117.937500	20.059740	117.750000	19.651948	117.781250	14.229000	117.859375	0.016000
118.437500	20.114286	118.250000	19.571429	118.281250	14.229000	118.359375	0.005000
118.937500	20.127273	118.750000	19.651948	118.781250	14.224000	118.843750	0.016000
119.437500	19.992208	119.250000	19.490909	119.281250	14.224000	119.359375	0.027000
119.937500	20.127273	119.750000	19.638961	119.781250	14.219000	119.843750	0.011000
120.437500	20.072727	120.250000	19.677922	120.281250	14.219000	120.343750	0.022000
